IGOR
WAVES /D  SE0523_006_001 
BEGIN
77548
77617
77693
77986
77601
78065
77727
77302
77602
77576
77299
77728
77312
77413
76999
77495
77253
77588
77758
77263
77922
77177
77619
76997
77357
77403
77313
77283
77726
77194
77641
77172
77693
77391
77605
77410
77692
77478
77704
77049
77692
77053
76891
76930
77599
77723
77143
77440
77462
77451
76922
77001
77769
77699
77447
77985
77630
77220
77512
77515
77448
77319
77265
77869
77577
76861
77737
77507
77882
77874
77457
77868
77464
77445
77458
77388
77697
77429
77107
78053
77253
77401
77485
77826
77536
77153
77814
77252
78032
77766
78130
77945
77600
77587
77501
77379
77817
77849
77979
78202
77518
77558
77702
77963
77576
77490
77767
77128
77622
77311
77664
77273
77308
77610
77772
77270
77407
77256
76851
77453
77180
77258
77026
77711
77400
76899
76994
77478
77617
77075
76897
76991
77185
77077
77236
77108
77369
77365
77587
76888
77654
77470
77176
77107
76868
77098
77146
77545
77439
77162
77288
77310
77066
77214
77692
77549
77727
77344
77352
77259
77367
77493
77419
77760
77671
76788
77460
77803
77523
77472
77845
77319
76989
77410
77041
77130
77200
77746
77552
77385
77608
77327
77152
77296
77485
77547
76836
77666
77540
77171
77271
76763
77425
77774
77638
76918
77737
77653
77473
76899
77599
77690
77761
77858
77484
77590
77512
77918
77673
77290
77725
77342
76960
77648
77198
77908
77923
77655
77647
77706
77857
77848
77753
78205
78116
78622
77846
78201
78567
77709
78063
77922
78210
77969
77759
77159
78072
78279
77318
77201
77193
76605
76903
77240
76838
76814
76379
76548
77400
76738
77036
76985
76810
77051
76899
76826
77160
76950
76601
76837
76514
76779
76697
77207
76961
76706
77065
76308
76537
76969
76563
76521
76981
77153
76668
76623
76921
76865
76963
76814
76647
76657
76941
76882
76600
76894
76864
76602
76853
76762
76724
76708
77259
77200
76346
76979
76674
77169
76680
76600
76462
76761
76324
76642
76993
76562
76980
76240
76674
77269
76498
76807
77065
76814
76816
76495
76802
76445
76863
77027
76926
76675
76635
76941
76762
76636
76231
77046
76642
76629
76978
76813
76836
76910
76918
76247
76640
76445
77033
76590
76902
76713
76617
76548
76510
76482
76865
76660
76569
76154
76187
76991
77131
76445
76530
76623
76789
76490
76656
76991
77223
END
X silent 1
X SetScale/I x 2.920000E+2, 2.849958E+2,"eV" SE0523_006_001
X Display SE0523_006_001
X LEGEND
X SetAxis/A/R Bottom 
X Label bottom "Binding Energy (\\U)"
X Label Left "Intensity (arb. units)"
X Textbox /F=0 /A=MT/Y=-5 "Sum of 3 scans"
